wavelength_nm,index
1721.23096,138
1731.19238,139
1711.26929,137
1452.18188,111
1701.30737,136
1691.34534,135
1292.66248,100
2046.71863,159
2096.79565,164
2076.77173,162
2056.73877,160
2086.78491,163
2066.75635,161
1282.69055,99
2036.69617,158
1986.55005,153
1741.15344,140
2026.67163,157
1302.63428,101
1272.71826,98
