wavelength_nm,index
1731.19238,139
1721.23096,138
1452.18188,111
1711.26929,137
1701.30737,136
1691.34534,135
1292.66248,100
2056.73877,160
1442.21375,110
2086.78491,163
1986.55005,153
1282.69055,99
2036.69617,158
2066.75635,161
2076.77173,162
2096.79565,164
1681.38293,134
1422.27673,108
1996.58386,154
2136.81567,168
2046.71863,159
1936.34607,148
1741.15344,140
2166.80664,171
2146.81494,169
1671.42029,133
1119.65601,80
2106.8042,165
2116.8103,166
2186.78906,173
