wavelength_nm,index
1741.1534,140
1731.1924,139
1671.4203,133
1701.3074,136
1751.1144,141
1691.3453,135
1721.231,138
1711.2693,137
1681.3829,134
1322.5771,103
1641.531,130
1651.4944,131
1661.4575,132
1312.6058,102
1761.0751,142
1492.0521,115
1272.7183,98
1302.6343,101
2196.7766,174
2216.7454,176
