wavelength_nm
365.9298
375.594
385.26254
394.93552
404.61288
414.29462
423.98077
433.6713
443.3662
453.06552
462.7692
472.4773
482.18976
491.90665
501.6279
511.35355
521.08356
530.818
540.5568
550.30005
560.04767
569.7996
579.556
589.3168
599.0819
608.8515
618.6254
628.40375
638.18646
647.9736
657.7651
667.561
654.7923
664.59937
674.40125
684.19794
693.9894
703.77563
713.55664
723.3325
733.1031
742.8685
752.6287
762.3837
772.1335
781.87805
791.61743
801.35156
811.0805
820.80426
830.52277
840.2361
849.94415
859.6471
869.3448
879.03723
888.7245
898.40656
908.0834
917.75507
927.42145
937.0827
946.7387
956.38947
966.0351
975.6755
985.3106
994.94055
1004.5653
1014.1849
1023.7992
1033.4083
1043.0122
1052.611
1062.2045
1071.7927
1081.3757
1090.9536
1100.5262
1110.0938
1119.656
1129.213
1138.7648
1148.3114
1157.8528
1167.389
1176.9199
1186.4458
1195.9663
1205.4817
1214.9918
1224.4967
1233.9965
1243.491
1252.9802
1262.4644
1252.773
1262.7457
1272.7183
1282.6906
1292.6625
1302.6343
1312.6058
1322.5771
1332.5481
1342.5189
1352.4895
1412.3079
1422.2767
1432.2454
1442.2137
1452.1819
1462.1499
1472.1176
1482.085
1492.0521
1502.019
1511.9858
1521.9523
1531.9185
1541.8845
1551.8502
1561.8157
1571.781
1581.746
1591.7108
1601.6753
1611.6396
1621.6036
1631.5675
1641.531
1651.4944
1661.4575
1671.4203
1681.3829
1691.3453
1701.3074
1711.2693
1721.231
1731.1924
1741.1534
1751.1144
1761.0751
1771.0355
1780.9957
1790.9557
1800.9154
1810.8749
1936.3461
1946.3915
1956.4346
1966.4753
1976.5138
1986.55
1996.5839
2006.6154
2016.6447
2026.6716
2036.6962
2046.7186
2056.7388
2066.7563
2076.7717
2086.785
2096.7957
2106.8042
2116.8103
2126.8142
2136.8157
2146.815
2156.812
2166.8066
2176.799
2186.789
2196.7766
2206.7622
2216.7454
2226.726
2236.7046
2246.6807
2256.6545
2266.6262
2276.5955
2286.5625
2296.527
2306.4895
2316.4495
2326.4072
2336.3625
2346.3157
2356.2666
2366.215
2376.1611
2386.1052
2396.0466
2405.986
2415.923
2425.8577
2435.79
2445.72
2455.6477
2465.5732
2475.4963
2485.4172
