wavelength_nm,index
1731.1924,139
1741.1534,140
1671.4203,133
1711.2693,137
1721.231,138
1681.3829,134
1751.1144,141
1691.3453,135
1701.3074,136
1661.4575,132
2196.7766,174
1322.5771,103
2216.7454,176
1641.531,130
1976.5138,152
2016.6447,156
2226.726,177
2206.7622,175
385.26254,2
1302.6343,101
1966.4753,151
1312.6058,102
1651.4944,131
2176.799,172
1176.9199,86
1761.0751,142
2026.6716,157
1186.4458,87
2236.7046,178
1272.7183,98
