wavelength_nm,index
1681.3829,134
1701.3074,136
1741.1534,140
1731.1924,139
1671.4203,133
1661.4575,132
1691.3453,135
1721.231,138
1711.2693,137
1751.1144,141
1641.531,130
2166.8066,171
1761.0751,142
2176.799,172
2196.7766,174
2226.726,177
1492.0521,115
1651.4944,131
2036.6962,158
2246.6807,179
2146.815,169
2056.7388,160
1631.5675,129
2186.789,173
2016.6447,156
2266.6262,181
2216.7454,176
2156.812,170
2046.7186,159
1591.7108,125
