wavelength_nm,index
1731.19238,139
1721.23096,138
1711.26929,137
1701.30737,136
1452.18188,111
1292.66248,100
1691.34534,135
2046.71863,159
2056.73877,160
2066.75635,161
2076.77173,162
2036.69617,158
1986.55005,153
2096.79565,164
1741.15344,140
1996.58386,154
1442.21375,110
1681.38293,134
2086.78491,163
1422.27673,108
1671.42029,133
2136.81567,168
1282.69055,99
1119.65601,80
1631.5675,129
1302.63428,101
2106.8042,165
1252.98022,94
1661.45752,132
2126.81421,167
